Wavelength (nm) - Plot 0,Intensity (AU) - Plot 0
1,304.465
2,305.185
3,304.065
4,306.01
5,306.42
6,304.275
7,305.47
8,306.09
9,305.5
10,304.865
11,306.67
12,304.7
13,304.985
14,304.43
15,306.155
16,304.99
17,305.055
18,304.03
19,306.855
20,304.84
21,305.225
22,306.03
23,305.35
24,305.775
25,305.38
26,305.265
27,306.115
28,306.71
29,307.82
30,309.575
31,311.97
32,314.5
33,318.41
34,319.235
35,322.45
36,324.68
37,327.08
38,330.77
39,335.37
40,339.365
41,344.695
42,348.63
43,356.15
44,362.305
45,370.3
46,378.33
47,388.06
48,396.05
49,404.035
50,413.15
51,421.94
52,429.84
53,437.45
54,444.87
55,450.305
56,457.055
57,461.095
58,464.97
59,468.68
60,471.58
61,474.385
62,476.47
63,478.045
64,481.97
65,484.945
66,485.635
67,488.74
68,489.85
69,493.73
70,496.35
71,498.88
72,500.765
73,503.13
74,505.46
75,508.855
76,511.555
77,514.525
78,517.225
79,521.83
80,525.355
81,529.59
82,532.355
83,537.115
84,540.715
85,545.11
86,549.65
87,554.075
88,557.64
89,563.015
90,565.56
91,570.705
92,573.68
93,578.03
94,581.815
95,584.93
96,587.61
97,591.395
98,594.565
99,598.235
100,598.58
101,600.805
102,599.48
103,604.28
104,602.065
105,604.53
106,604.395
107,605.37
108,607.535
109,608.8
110,609.91
111,609.895
112,611.375
113,615.92
114,613.965
115,616.97
116,616.94
117,618.205
118,614.67
119,613.47
120,609.925
121,609.405
122,607.27
123,606.93
124,607.715
125,607.25
126,606.84
127,607.565
128,608.73
129,610.06
130,610.23
131,611.33
132,611.635
133,615.015
134,615.185
135,616.7
136,616.765
137,619.57
138,620.01
139,620.43
140,620.38
141,622.13
142,622.545
143,623.905
144,623.515
145,624.895
146,624.79
147,625.625
148,625.375
149,628.225
150,625.77
151,629.395
152,628.025
153,628.25
154,628.775
155,629.855
156,630.185
157,631.51
158,632.59
159,632.48
160,632.39
161,636.11
162,634.1
163,635.495
164,634.35
165,636.885
166,640.545
167,642.915
168,647.96
169,650.65
170,655.755
171,660.86
172,666.42
173,671.615
174,675.865
175,680.435
176,685.31
177,688.87
178,691.565
179,690.025
180,683.965
181,678.315
182,670.25
183,661.03
184,656.115
185,653.295
186,648.875
187,644.98
188,641.41
189,638.13
190,634.955
191,634.9
192,634.295
193,631.355
194,631.225
195,628.49
196,628.365
197,628.505
198,628.565
199,629.165
200,629.68
201,630.01
202,631.82
203,631.975
204,634.66
205,635.86
206,634.905
207,635.83
208,634.495
209,633.33
210,632.625
211,632.815
212,631.655
213,629.69
214,628.915
215,628.36
216,627.21
217,628.595
218,626.43
219,627.67
220,625.955
221,626.885
222,627.21
223,627.36
224,626.62
225,628.105
226,626.68
227,627.665
228,626.37
229,627.51
230,628.245
231,627.73
232,628.765
233,630.67
234,632.05
235,633.19
236,634.36
237,633.745
238,633.875
239,634.455
240,636.25
241,636.265
242,636.93
243,637.66
244,638.335
245,640.295
246,639.905
247,640.315
248,640.71
249,641.855
250,643.34
251,644.49
252,644.105
253,645.475
254,646.33
255,647.755
256,648.76
257,650.36
258,651.3
259,651.52
260,650.92
261,650.275
262,649.53
263,649.56
264,645.48
265,645.17
266,644.235
267,642.345
268,642.12
269,643.425
270,643.595
271,642.87
272,641.12
273,643.28
274,644.21
275,645.005
276,644.53
277,648.01
278,650.385
279,655.265
280,654.735
281,650.395
282,643.865
283,642.2
284,641.615
285,642.41
286,644.92
287,647.905
288,649.4
289,649.645
290,650.745
291,651.915
292,651.64
293,651.69
294,652.375
295,650.215
296,649.215
297,650.375
298,646.81
299,646.93
300,644.96
301,644.82
302,643.315
303,640.15
304,637.935
305,638.835
306,637.27
307,635.795
308,636.735
309,634.915
310,635.02
311,634.36
312,633.76
313,634.825
314,634.665
315,635.95
316,636.26
317,634.33
318,635.315
319,635.085
320,636.83
321,637.6
322,636.4
323,638.59
324,640.77
325,641.065
326,641.02
327,642.335
328,642.35
329,641.5
330,641.41
331,640.67
332,638.675
333,637.54
334,636.21
335,636.265
336,636.585
337,639.18
338,637.685
339,639.54
340,639.68
341,639.8
342,640.77
343,641.625
344,641.205
345,641.355
346,641.115
347,642.345
348,639.63
349,641.235
350,640.765
351,641.555
352,642.18
353,645.46
354,644.62
355,647.15
356,645.67
357,648.31
358,647.3
359,646.645
360,647.095
361,647.22
362,644.96
363,645.185
364,646.065
365,644.735
366,647.255
367,648.06
368,649.385
369,652.22
370,655.755
371,660.14
372,665
373,665.12
374,665.86
375,662.55
376,657.585
377,654.97
378,652.905
379,651.085
380,650.815
381,652.805
382,653.045
383,654.08
384,654.33
385,654.365
386,654.11
387,652.095
388,652.315
389,652.555
390,652.59
391,651.84
392,651.635
393,650.975
394,650.12
395,651.685
396,652.075
397,648.92
398,651.48
399,649.485
400,648.91
401,649.795
402,649.725
403,648.525
404,649.675
405,650.3
406,649.995
407,650.23
408,651.03
409,655.965
410,658.855
411,663.34
412,667.89
413,674.04
414,678.515
415,681.84
416,683.655
417,684.295
418,685.405
419,685.955
420,684.09
421,681.395
422,677.555
423,671.96
424,668.045
425,667.93
426,664.77
427,663.995
428,663.04
429,662.32
430,663.01
431,662.12
432,662.03
433,660.985
434,659.005
435,657.95
436,654.445
437,654.085
438,651.25
439,650.32
440,650.12
441,649.41
442,649.69
443,651.015
444,647.09
445,648.15
446,649.605
447,648.12
448,648.1
449,648.685
450,647.71
451,647.17
452,646.805
453,645.835
454,645.995
455,645.195
456,646.64
457,647.29
458,645.71
459,647.225
460,648.545
461,647.725
462,647.92
463,648.715
464,647.45
465,649.915
466,648.695
467,649.115
468,650.555
469,651.87
470,652.195
471,653.55
472,655.165
473,654.915
474,656.81
475,658.64
476,659.415
477,662.11
478,662.065
479,659.895
480,655.025
481,654.64
482,653.725
483,652.17
484,652.575
485,652.865
486,652.53
487,653.06
488,654.635
489,656.82
490,658.9
491,662.85
492,667.665
493,674.065
494,676.435
495,675.225
496,669.96
497,666.69
498,665.345
499,663.76
500,661.275
501,660.18
502,658.86
503,657.815
504,657.53
505,656.85
506,656.65
507,655.615
508,657.17
509,657.985
510,656.2
511,657.635
512,657.235
513,656.81
514,654.455
515,656.13
516,655.22
517,657.42
518,657.76
519,659.065
520,660.44
521,663.64
522,666.59
523,672.315
524,675.69
525,679.61
526,682.37
527,686.11
528,687.39
529,689.56
530,693.435
531,697.505
532,700.34
533,704.415
534,703.12
535,694.64
536,683.205
537,675.735
538,668.95
539,664.37
540,660.635
541,658.21
542,657.12
543,655.25
544,654.75
545,653.855
546,654.925
547,654.12
548,653.76
549,653
550,654.135
551,654.415
552,654.53
553,656.43
554,655.985
555,655.845
556,657.745
557,656.015
558,657.135
559,658.78
560,657.06
561,659.72
562,658.54
563,657.345
564,657.965
565,657.12
566,657.295
567,656.715
568,655.895
569,656.675
570,655.39
571,655.195
572,654.595
573,653.405
574,652.355
575,652.545
576,652.38
577,651.74
578,652.32
579,653.725
580,652.96
581,652.97
582,654.635
583,655.295
584,654.925
585,655.625
586,655.81
587,657.55
588,656.04
589,658.325
590,658.34
591,657.85
592,657.57
593,659.91
594,657.665
595,657.715
596,658.685
597,657.115
598,656.525
599,655.53
600,654.93
601,655.16
602,652.98
603,654.325
604,653.61
605,653.62
606,651.68
607,652.345
608,652.12
609,652.64
610,652.44
611,653.415
612,653.24
613,654.125
614,653.725
615,655.155
616,654.7
617,655.81
618,656.13
619,657.135
620,657.78
621,655.435
622,656.975
623,656.94
624,656.02
625,657.285
626,655.455
627,656.085
628,656.275
629,656.405
630,655.94
631,655.34
632,652.435
633,653.68
634,654.225
635,653.765
636,651.38
637,650.425
638,650.53
639,648.81
640,648.27
641,648.13
642,649.815
643,649.52
644,648.595
645,649.44
646,651.03
647,652.29
648,650.765
649,653.63
650,653.405
651,652.905
652,654.66
653,655.25
654,654.485
655,654.265
656,655.325
657,655.89
658,655.06
659,654.6
660,652.935
661,653.115
662,652.76
663,651.435
664,650.84
665,652.01
666,650.705
667,649.675
668,647.875
669,649.5
670,647.42
671,648.83
672,648.505
673,647.53
674,647.98
675,648.02
676,648.32
677,648.215
678,649.685
679,649.165
680,650.645
681,651.705
682,650.38
683,653.885
684,653.455
685,652.595
686,653.68
687,652.74
688,652.705
689,652.175
690,650.545
691,649.605
692,647.535
693,647.77
694,646.51
695,646.66
696,642.91
697,642.58
698,640.22
699,641.495
700,640.02
701,639.535
702,639.53
703,640.265
704,639.38
705,640.115
706,639.025
707,641.635
708,642.16
709,642.6
710,645.015
711,644.84
712,645.395
713,644.31
714,645.115
715,647.625
716,647.435
717,648.625
718,648.205
719,648.52
720,648.99
721,647.445
722,647.115
723,648.355
724,647.375
725,646.025
726,644.95
727,644.285
728,643.775
729,643.41
730,642.545
731,642.81
732,641.88
733,641.53
734,639.865
735,639.04
736,640.87
737,640.395
738,638.745
739,640.77
740,641.835
741,642.465
742,642.06
743,644.015
744,644.815
745,646.09
746,647.665
747,648.02
748,647.32
749,646.385
750,647.76
751,645.9
752,646.94
753,645.535
754,645.84
755,643.89
756,643.36
757,642.405
758,641.085
759,639.415
760,639.76
761,637.17
762,635.27
763,635.155
764,633.92
765,632.72
766,631.255
767,629.085
768,628.02
769,628.15
770,627.41
771,627.15
772,625.495
773,625.965
774,625.855
775,626.06
776,626.53
777,627.75
778,627.865
779,628.95
780,629.105
781,629.44
782,631.175
783,632.125
784,633.9
785,634.58
786,634.67
787,635.81
788,635.6
789,635.255
790,636.845
791,636.435
792,633.925
793,635.09
794,633.055
795,633.09
796,632.035
797,629.41
798,629.715
799,628.635
800,625.51
801,624.12
802,624.29
803,622.505
804,621.935
805,621.325
806,622.095
807,620.705
808,619.535
809,620.66
810,619.12
811,620.435
812,619.31
813,622.345
814,621.555
815,623.635
816,623.79
817,624.225
818,623.74
819,624.475
820,625.72
821,626.24
822,625.66
823,626.67
824,626.69
825,624.205
826,625.74
827,624.99
828,623.62
829,623.255
830,621.15
831,621.56
832,619.305
833,620.98
834,618.245
835,619.4
836,618.315
837,618.52
838,617.65
839,618.17
840,618
841,620.075
842,618.87
843,621.11
844,619.92
845,619.345
846,619.39
847,617.915
848,617.74
849,617.335
850,615.015
851,616.135
852,615.83
853,616.35
854,616.365
855,615.55
856,616.74
857,617.6
858,617.75
859,617.275
860,616.995
861,618.765
862,619.88
863,618.94
864,618.73
865,618.7
866,617.185
867,616.82
868,615.97
869,614.885
870,612.21
871,612.255
872,608.77
873,609.81
874,607.29
875,606.845
876,603.85
877,602.58
878,602.955
879,600.42
880,599.06
881,598.345
882,596.695
883,596.575
884,593.92
885,596.145
886,594.835
887,596.2
888,596.155
889,597.78
890,597.375
891,598.115
892,599.46
893,599.6
894,600.01
895,603.235
896,602.92
897,602.845
898,602.405
899,603.015
900,602.215
901,603.77
902,602.94
903,602.555
904,602
905,601.675
906,599.145
907,600.98
908,598.01
909,598
910,596.465
911,595.055
912,592.455
913,593.26
914,589.61
915,589.76
916,589.425
917,589.35
918,588.225
919,588.89
920,587.185
921,588.085
922,588.345
923,589.615
924,588.37
925,589.55
926,591.33
927,591.09
928,592.55
929,593.01
930,594.14
931,596.135
932,595.065
933,595.525
934,596.845
935,597.005
936,597.74
937,598.125
938,598.47
939,597.63
940,598.63
941,599.905
942,598.025
943,596.905
944,596.445
945,596.635
946,595.035
947,594.3
948,594.445
949,593.89
950,591.575
951,590.705
952,589.19
953,587.755
954,588.475
955,587.925
956,585.15
957,585.205
958,585.965
959,584.75
960,583.365
961,583.54
962,581.895
963,582.925
964,581.28
965,582.185
966,582.255
967,582.82
968,583.595
969,586.655
970,586.14
971,588.48
972,589.635
973,592.25
974,596.925
975,599.225
976,602.27
977,607.425
978,611.805
979,617.725
980,623.385
981,629.005
982,634.69
983,640.525
984,643.915
985,650.385
986,653.595
987,658.545
988,662.44
989,664.91
990,665.38
991,664.51
992,661.94
993,661.52
994,659.305
995,656.57
996,650.69
997,648.56
998,645.035
999,643.645
1000,640.835
1001,638.225
1002,634.42
1003,632.205
1004,628.705
1005,629.355
1006,626.205
1007,626.975
1008,624.31
1009,621.93
1010,616.885
1011,615.82
1012,611.115
1013,609.745
1014,605.73
1015,604.155
1016,602.615
1017,599.53
1018,596.59
1019,596.295
1020,594.775
1021,594.03
1022,591.975
1023,591.55
1024,590.68
1025,591.025
1026,590.18
1027,590.045
1028,589.755
1029,590.11
1030,587.57
1031,586.38
1032,582.43
1033,580
1034,577.755
1035,575.105
1036,571.96
1037,568.855
1038,566.205
1039,562.885
1040,560.025
1041,557.58
1042,555.715
1043,553.54
1044,552.695
1045,550.73
1046,549.015
1047,548.82
1048,547.95
1049,547.9
1050,547.42
1051,548.16
1052,547.33
1053,548.725
1054,548.01
1055,550.79
1056,550.455
1057,551.285
1058,552.9
1059,554.915
1060,555.6
1061,557.53
1062,557.535
1063,558.72
1064,558.57
1065,559.18
1066,559.405
1067,560.1
1068,559.435
1069,558.02
1070,556.185
1071,556.77
1072,555.245
1073,554.52
1074,553.165
1075,552.35
1076,549.93
1077,549.01
1078,547.62
1079,545.5
1080,543.44
1081,543.295
1082,542.35
1083,540.49
1084,539.815
1085,537.12
1086,536.385
1087,534.57
1088,534.085
1089,532.515
1090,531.055
1091,531.6
1092,529.48
1093,528.62
1094,529.095
1095,529.175
1096,527.33
1097,527.9
1098,526.88
1099,526.82
1100,526.53
1101,527.245
1102,526.08
1103,527.335
1104,526.595
1105,526.9
1106,526.33
1107,527.23
1108,527.39
1109,530.085
1110,529.065
1111,529.64
1112,529.56
1113,531.145
1114,531.245
1115,533.18
1116,533.515
1117,534.715
1118,535.525
1119,535.62
1120,534.915
1121,533.55
1122,533.055
1123,533.13
1124,530.005
1125,529.49
1126,527.15
1127,527.465
1128,524.795
1129,524.57
1130,521.27
1131,522.7
1132,519.1
1133,516.935
1134,516.45
1135,515.775
1136,514.18
1137,514.42
1138,513.24
1139,512.735
1140,512.98
1141,512.95
1142,512.27
1143,513.86
1144,513.915
1145,515.3
1146,515.78
1147,517.25
1148,517.855
1149,518.85
1150,520
1151,519.515
1152,521.86
1153,523.055
1154,522.645
1155,524.415
1156,524.25
1157,524.26
1158,523.035
1159,521.99
1160,521.66
1161,521.98
1162,520.135
1163,520.245
1164,517.49
1165,517.565
1166,515.375
1167,512.835
1168,512.52
1169,510.095
1170,509.15
1171,508.65
1172,507.385
1173,505.485
1174,504.595
1175,503.01
1176,500.605
1177,500.25
1178,498.535
1179,496.825
1180,497.39
1181,496.09
1182,495.535
1183,495.63
1184,496.015
1185,496.28
1186,497.455
1187,499.86
1188,498.12
1189,502.12
1190,502.035
1191,504.025
1192,504.87
1193,508.095
1194,508.6
1195,510.06
1196,510.485
1197,510.175
1198,512.305
1199,512.66
1200,512.095
1201,512.135
1202,511.885
1203,511.105
1204,509.01
1205,507.805
1206,507.195
1207,506.715
1208,504.39
1209,504.52
1210,501.225
1211,500.065
1212,497.275
1213,495.325
1214,493.96
1215,493.78
1216,491.27
1217,489.385
1218,487.945
1219,487.315
1220,486.625
1221,487.73
1222,487.93
1223,488.975
1224,488.46
1225,490.29
1226,491.615
1227,491.315
1228,492.94
1229,493.9
1230,495.635
1231,495.745
1232,496.77
1233,499.04
1234,499.725
1235,498.73
1236,499.77
1237,499.33
1238,499.995
1239,499.885
1240,498.635
1241,498.21
1242,496.235
1243,495.405
1244,494.68
1245,492.885
1246,493.425
1247,490.89
1248,490.49
1249,488.63
1250,486.32
1251,484.88
1252,484.655
1253,484.655
1254,482.02
1255,480.745
1256,478.935
1257,478.46
1258,476.585
1259,477.41
1260,475.54
1261,475.825
1262,474.245
1263,474.765
1264,475
1265,474.59
1266,475.605
1267,476.835
1268,477.14
1269,477.32
1270,478.815
1271,479.34
1272,479.775
1273,480.91
1274,482.28
1275,485.045
1276,485.845
1277,485.945
1278,486.52
1279,487
1280,487.865
1281,489.18
1282,487.02
1283,488.635
1284,486.23
1285,485.7
1286,483.05
1287,483.88
1288,483.06
1289,481.295
1290,478.08
1291,478.04
1292,477.18
1293,475.065
1294,473.595
1295,472.815
1296,471.535
1297,469.255
1298,468.03
1299,467.36
1300,466.66
1301,467.82
1302,465.67
1303,466.32
1304,466.515
1305,467.29
1306,467.935
1307,467.025
1308,467.95
1309,469.195
1310,470.89
1311,472.34
1312,471.895
1313,472.805
1314,472.27
1315,474.13
1316,474.205
1317,474.71
1318,474.205
1319,474.315
1320,473.015
1321,473.085
1322,471.475
1323,472.485
1324,470.1
1325,470.425
1326,468.69
1327,467.195
1328,464.885
1329,463.48
1330,461.735
1331,461.64
1332,459.19
1333,457.035
1334,456.595
1335,456.475
1336,453.715
1337,453.025
1338,453.08
1339,454.05
1340,453.775
1341,453.11
1342,455.71
1343,456.495
1344,456.915
1345,458.06
1346,460.7
1347,461.255
1348,462.39
1349,464.185
1350,465.085
1351,466.215
1352,465.52
1353,467.425
1354,466.485
1355,466.86
1356,466.795
1357,465.25
1358,464.09
1359,462.97
1360,461.285
1361,459.56
1362,457.65
1363,457.59
1364,454.63
1365,453.515
1366,451.65
1367,451.2
1368,449.01
1369,448.135
1370,444.93
1371,446.455
1372,444.71
1373,445.185
1374,445.69
1375,445
1376,443.91
1377,444.595
1378,444.205
1379,445.78
1380,444.53
1381,445.86
1382,446.07
1383,447.23
1384,447.495
1385,449.245
1386,449.345
1387,450.05
1388,450.39
1389,451.775
1390,452.43
1391,454.08
1392,452.34
1393,453.76
1394,453.01
1395,453.955
1396,451.965
1397,452.11
1398,452.145
1399,449.175
1400,448.7
1401,449.17
1402,447.545
1403,445.725
1404,443.705
1405,441.855
1406,439.8
1407,438.995
1408,436.75
1409,436.215
1410,433.74
1411,433.25
1412,430.83
1413,430.665
1414,429.03
1415,430.76
1416,430.445
1417,431.615
1418,430.28
1419,431.325
1420,432.48
1421,435.06
1422,436.84
1423,438.25
1424,439.165
1425,442.49
1426,442.625
1427,443.935
1428,445.275
1429,446.765
1430,446.305
1431,446.11
1432,445.985
1433,446.58
1434,444.735
1435,444.755
1436,443.25
1437,442.585
1438,440.61
1439,439.9
1440,438.16
1441,436.695
1442,434.995
1443,434.21
1444,432.76
1445,430.755
1446,429.45
1447,427.725
1448,426.15
1449,425.33
1450,423.715
1451,421.87
1452,421.37
1453,421.46
1454,421.12
1455,418.96
1456,417.77
1457,417.89
1458,418.255
1459,419.945
1460,420.02
1461,420.915
1462,420.365
1463,421.245
1464,422.485
1465,425.23
1466,426.43
1467,428.33
1468,428.145
1469,430.445
1470,431.34
1471,431.17
1472,431.245
1473,432.205
1474,431.26
1475,432.74
1476,432.64
1477,432.975
1478,432.74
1479,432.435
1480,430.915
1481,430
1482,428.64
1483,428.445
1484,427.02
1485,428.07
1486,425.595
1487,424.22
1488,422.145
1489,422.05
1490,421.795
1491,421.96
1492,419.57
1493,418.355
1494,417.165
1495,416.635
1496,413.41
1497,414.665
1498,412.56
1499,410.64
1500,410.66
1501,410
1502,409.16
1503,408.12
1504,408.145
1505,407.59
1506,407.13
1507,407.645
1508,406.865
1509,407.085
1510,407.205
1511,408.86
1512,407.645
1513,410.17
1514,407.845
1515,409.375
1516,409.36
1517,409.415
1518,410.075
1519,410.665
1520,410.55
1521,411.795
1522,412.975
1523,412.675
1524,412.62
1525,413.2
1526,414.05
1527,415.135
1528,414.745
1529,416.435
1530,416.48
1531,417.655
1532,417.445
1533,417.225
1534,417.025
1535,416.69
1536,416.145
1537,416.83
1538,415.825
1539,416.39
1540,416.705
1541,416.605
1542,415.8
1543,415.72
1544,414.685
1545,415.13
1546,414.055
1547,413.265
1548,412.78
1549,411.345
1550,411.97
1551,411.695
1552,409.495
1553,409.625
1554,407.315
1555,407.655
1556,406.13
1557,406.145
1558,404.635
1559,405.045
1560,403.505
1561,402.5
1562,401.095
1563,401.635
1564,400.285
1565,400.44
1566,400.28
1567,399.435
1568,398.73
1569,397.81
1570,396.93
1571,397.585
1572,396.535
1573,395.945
1574,394.745
1575,394.94
1576,393.405
1577,393.675
1578,392.71
1579,394.355
1580,393.15
1581,394.785
1582,394.16
1583,393.77
1584,392.685
1585,392.805
1586,392.09
1587,394.005
1588,393
1589,392.94
1590,392.58
1591,392.965
1592,391.5
1593,391.45
1594,391.355
1595,392.96
1596,391.775
1597,391.245
1598,390.805
1599,390.75
1600,390.375
